[Fe/H],[Eu/Fe],[Mg/Fe],Eu/Mg
-1.21,0.32,0,0.32
-0.92,0.26,-0.13,0.39
-1.6,0.25,0.07,0.18
-0.67,0.6,0.18,0.42
-0.73,0.62,-0.02,0.64
-0.71,0.71,-0.18,0.89
-1.12,0.49,0.22,0.27
-1.06,0.58,-0.2,0.78
-0.74,0.59,-0.15,0.74
-0.97,0.47,-0.04,0.51
-0.66,0.34,-0.1,0.44
-0.91,0.57,-0.17,0.74
-0.92,0.6,0.16,0.44
-1.02,0.9,0.05,0.85
-0.62,0.39,-0.34,0.73
-0.86,0.45,-0.16,0.61
-0.67,0.1,-0.42,0.52
-0.7,0.09,-0.1,0.19
-0.26,0.17,-0.06,0.23
-0.82,0.55,-0.22,0.77
-1.68,0.92,0.22,0.7
-0.62,0.04,-0.19,0.23
-0.74,0.08,-0.08,0.16
-0.88,0.37,-0.03,0.4
-0.82,0.63,0.08,0.55
-0.67,0.39,-0.05,0.44
-0.88,0.37,0,0.37
-0.63,0.54,-0.14,0.68
-1.52,0.7,0.17,0.53
-0.73,0.58,-0.06,0.64
-0.69,0.43,-0.09,0.52
-0.75,0.63,-0.05,0.68
-0.95,0.58,-0.04,0.62
-0.91,0.53,-0.08,0.61
-0.86,0.48,-0.09,0.57
-0.89,0.3,-0.11,0.41
-1,1.25,-0.12,1.37
-0.97,0.53,-0.09,0.62
-0.87,0.85,0,0.85
-0.78,0.76,-0.03,0.79
-1.43,0.36,-0.02,0.38
-0.79,0.53,-0.34,0.87
-0.73,0.73,0,0.73
-0.86,0.59,-0.08,0.67
-0.89,0.54,-0.09,0.63
-0.86,0.92,-0.13,1.05
-0.83,0.67,-0.01,0.68
-0.82,0.51,-0.13,0.64
-0.89,0.75,0.03,0.72
-0.72,0.52,-0.02,0.54
-0.96,0.64,-0.06,0.7
-0.95,0.67,0.02,0.65
-0.79,0.38,-0.29,0.67
-0.68,0.51,-0.15,0.66
-1.01,0.72,-0.1,0.82
-0.94,0.64,-0.15,0.79
-0.87,0.83,0.04,0.79
-0.74,0.52,-0.06,0.58
-0.9,0.76,-0.11,0.87
-0.78,0.7,-0.14,0.84
-1.48,0.08,0.03,0.05
-0.81,0.88,-0.08,0.96
-0.87,0.86,-0.11,0.97
-0.78,1.23,-0.19,1.42
-0.58,0.52,-0.13,0.65
-1.38,1.71,0.42,1.29
-0.9,0.56,-0.05,0.61
-0.97,0.51,-0.06,0.57
-0.66,0.58,-0.19,0.77
-0.88,0.4,-0.18,0.58
-0.87,0.41,-0.28,0.69
-0.92,0.51,-0.16,0.67
-0.61,0.74,-0.27,1.01
-0.62,0.49,-0.09,0.58
-0.88,0.71,-0.13,0.84
-0.93,0.56,-0.18,0.74
-0.76,0.66,0.04,0.62
-0.7,0.69,-0.05,0.74
-0.85,0.52,-0.05,0.57
-0.83,0.68,-0.09,0.77
-1.14,0.8,-0.02,0.82
-0.81,0.87,-0.05,0.92
-0.76,0.4,-0.02,0.42
-0.86,0.58,-0.08,0.66
-0.57,0.78,-0.03,0.81
-0.88,0.87,0.01,0.86
-0.92,0.62,0.04,0.58
-1.09,0.21,0,0.21
-0.96,0.85,-0.03,0.88
-0.75,0.75,0,0.75
-0.64,0.2,-0.19,0.39
-1.39,0.67,0.02,0.65
-0.98,0.36,-0.13,0.49
-0.76,0.16,-0.22,0.38
-0.81,0.34,-0.23,0.57
-1.92,0.79,0.52,0.27
-1.48,0.45,-0.01,0.46
-0.92,-0.11,-0.36,0.25
-1.51,0.66,0.1,0.56
-1.02,0.44,0.16,0.28
-0.96,0.49,0.12,0.37
-0.85,0.06,-0.15,0.21
-0.97,0.41,0.02,0.39
-0.97,0.44,0.02,0.42
-0.8,0.13,-0.34,0.47
-0.54,0.4,-0.33,0.73
-0.48,0.22,-0.45,0.67
-1.02,0.36,0.21,0.15
-0.7,0.45,-0.04,0.49
-0.48,0.32,-0.43,0.75
-0.6,0.53,-0.12,0.65
-1.87,0.75,0.49,0.26
-1.15,0.23,-0.02,0.25
-0.77,0.47,-0.32,0.79